SpectraSuite Data File
++++++++++++++++++++++++++++++++++++
Date: Mon Jan 14 17:36:35 GMT 2008
User: Liliane
Dark Spectrum Present: Yes
Reference Spectrum Present: Yes
Number of Sampled Component Spectra: 1
Spectrometers: USB4A00428
Integration Time (usec): 20000 (USB4A00428)
Spectra Averaged: 50 (USB4A00428)
Boxcar Smoothing: 30 (USB4A00428)
Correct for Electrical Dark: No (USB4A00428)
Strobe/Lamp Enabled: Yes (USB4A00428)
Correct for Detector Non-linearity: No (USB4A00428)
Correct for Stray Light: No (USB4A00428)
Number of Pixels in Processed Spectrum: 3648
>>>>>Begin Processed Spectral Data<<<<<
178,65	0,000
178,86	0,000
179,08	0,000
179,30	93,625
179,51	73,016
179,73	402,632
179,94	16,736
180,16	-30,508
180,38	108,772
180,59	-235,443
180,81	-3,365
181,02	-37,572
181,24	626,471
181,46	197,059
181,67	-22,593
181,89	780,000
182,10	241,489
182,32	80,324
182,54	143,357
182,75	69,399
182,97	-56,410
183,18	14,400
183,40	655,882
183,62	565,306
183,83	48,770
184,05	-16,364
184,26	-7,429
184,48	104,580
184,70	194,565
184,91	-18,182
185,13	76,798
185,34	75,945
185,56	75,927
185,77	74,562
185,99	76,503
186,21	77,209
186,42	69,853
186,64	71,072
186,85	64,959
187,07	62,251
187,29	65,553
187,50	58,153
187,72	59,172
187,93	63,034
188,15	54,738
188,36	53,879
188,58	56,577
188,80	47,721
189,01	48,776
189,23	55,250
189,44	52,422
189,66	52,908
189,87	62,211
190,09	93,107
190,30	80,211
190,52	101,246
190,74	91,136
190,95	61,290
191,17	71,440
191,38	100,797
191,60	105,817
191,81	95,170
192,03	123,028
192,24	126,166
192,46	110,062
192,68	76,218
192,89	35,377
193,11	31,443
193,32	16,746
193,54	28,039
193,75	-32,021
193,97	-135,667
194,18	-71,940
194,40	-52,289
194,61	-72,917
194,83	-145,519
195,04	-5,924
195,26	-34,812
195,48	-20,297
195,69	-45,131
195,91	-44,548
196,12	-65,344
196,34	-46,233
196,55	-56,354
196,77	-48,451
196,98	-25,466
197,20	-32,184
197,41	-58,909
197,63	-96,860
197,84	-156,961
198,06	-118,440
198,27	-163,366
198,49	-144,685
198,70	-180,964
198,92	-140,082
199,13	-800,372
199,35	-2216,000
199,56	861,660
199,78	476,242
199,99	331,307
200,21	265,693
200,43	278,506
200,64	336,624
200,86	222,168
201,07	243,552
201,29	182,486
201,50	135,829
201,72	132,030
201,93	172,803
202,15	201,188
202,36	-11720,000
202,58	-248,438
202,79	-222,105
203,01	-218,987
203,22	2814,894
203,44	465,060
203,65	253,837
203,87	270,896
204,08	267,316
204,29	339,796
204,51	668,212
204,72	437,559
204,94	261,063
205,15	301,079
205,37	735,542
205,58	33575,000
205,80	783,871
206,01	410,359
206,23	186,651
206,44	230,309
206,66	237,975
206,87	489,399
207,09	696,739
207,30	176,854
207,52	155,163
207,73	162,635
207,95	166,895
208,16	143,563
208,38	122,277
208,59	115,744
208,81	102,193
209,02	118,376
209,23	116,577
209,45	116,447
209,66	130,324
209,88	144,385
210,09	158,744
210,31	135,094
210,52	133,481
210,74	177,603
210,95	344,904
211,17	1317,857
211,38	-588,393
211,60	2695,455
211,81	-739,070
212,02	2087,209
212,24	522,291
212,45	402,791
212,67	631,156
212,88	-248,907
213,10	-101,826
213,31	-27,117
213,53	-33,369
213,74	5,364
213,95	-24,686
214,17	-38,685
214,38	-51,724
214,60	-164,312
214,81	-101,887
215,03	-296,124
215,24	-195,493
215,45	-1816,129
215,67	804,242
215,88	4937,500
216,10	1243,373
216,31	1250,000
216,53	8130,000
216,74	-73,805
216,95	-179,940
217,17	-228,470
217,38	-151,804
217,60	-16,939
217,81	-15,244
218,03	-54,748
218,24	-48,945
218,45	-124,685
218,67	2400,000
218,88	571,533
219,10	280,840
219,31	401,974
219,53	140,203
219,74	89,899
219,95	41,982
220,17	41,693
220,38	40,033
220,60	33,244
220,81	36,177
221,02	28,223
221,24	21,684
221,45	13,185
221,67	16,121
221,88	19,385
222,09	19,128
222,31	18,356
222,52	17,797
222,74	17,655
222,95	16,829
223,16	16,706
223,38	17,137
223,59	18,025
223,81	15,574
224,02	15,131
224,23	13,467
224,45	13,579
224,66	12,058
224,87	12,562
225,09	12,819
225,30	12,672
225,52	12,750
225,73	13,868
225,94	14,365
226,16	14,373
226,37	14,848
226,59	14,225
226,80	14,925
227,01	14,692
227,23	13,978
227,44	13,933
227,65	13,004
227,87	13,987
228,08	14,255
228,30	14,682
228,51	13,968
228,72	14,236
228,94	14,120
229,15	14,721
229,36	15,130
229,58	15,090
229,79	14,844
230,00	13,650
230,22	12,849
230,43	13,531
230,65	13,773
230,86	14,107
231,07	13,691
231,29	14,284
231,50	15,072
231,71	14,963
231,93	14,597
232,14	14,381
232,35	14,340
232,57	14,033
232,78	13,836
232,99	13,966
233,21	13,828
233,42	13,796
233,63	13,888
233,85	13,158
234,06	13,629
234,27	13,777
234,49	14,259
234,70	14,517
234,91	13,769
235,13	13,625
235,34	13,919
235,55	13,570
235,77	13,630
235,98	13,320
236,19	13,361
236,41	13,548
236,62	13,398
236,83	13,708
237,05	13,880
237,26	13,911
237,47	13,918
237,69	13,922
237,90	13,738
238,11	13,579
238,33	13,395
238,54	13,186
238,75	13,194
238,97	13,292
239,18	13,351
239,39	12,908
239,61	12,911
239,82	12,611
240,03	12,434
240,24	12,349
240,46	12,568
240,67	12,794
240,88	12,619
241,10	12,352
241,31	12,224
241,52	12,297
241,74	12,387
241,95	12,430
242,16	12,373
242,37	12,355
242,59	12,287
242,80	12,205
243,01	12,304
243,23	12,311
243,44	12,302
243,65	12,240
243,87	12,139
244,08	12,146
244,29	12,124
244,50	11,984
244,72	11,910
244,93	11,937
245,14	11,954
245,36	11,943
245,57	11,961
245,78	11,973
245,99	11,961
246,21	11,949
246,42	11,987
246,63	11,787
246,84	11,773
247,06	11,635
247,27	11,631
247,48	11,647
247,70	11,514
247,91	11,634
248,12	11,666
248,33	11,544
248,55	11,599
248,76	11,549
248,97	11,696
249,18	11,697
249,40	11,505
249,61	11,433
249,82	11,402
250,03	11,251
250,25	11,116
250,46	11,033
250,67	10,993
250,88	11,002
251,10	11,029
251,31	10,951
251,52	10,979
251,74	10,946
251,95	10,913
252,16	10,774
252,37	10,802
252,58	10,829
252,80	10,889
253,01	10,837
253,22	10,743
253,43	10,712
253,65	10,660
253,86	10,697
254,07	10,710
254,28	10,705
254,50	10,621
254,71	10,509
254,92	10,437
255,13	10,310
255,35	10,209
255,56	10,205
255,77	10,259
255,98	10,287
256,19	10,313
256,41	10,172
256,62	10,225
256,83	10,196
257,04	10,118
257,26	10,090
257,47	10,134
257,68	10,123
257,89	10,102
258,10	10,101
258,32	10,058
258,53	10,076
258,74	9,938
258,95	9,865
259,17	9,834
259,38	9,820
259,59	9,823
259,80	9,833
260,01	9,779
260,23	9,718
260,44	9,728
260,65	9,722
260,86	9,629
261,07	9,564
261,29	9,675
261,50	9,644
261,71	9,636
261,92	9,547
262,13	9,627
262,35	9,722
262,56	9,798
262,77	9,848
262,98	9,917
263,19	9,890
263,41	9,883
263,62	9,874
263,83	9,808
264,04	9,726
264,25	9,720
264,46	9,678
264,68	9,654
264,89	9,669
265,10	9,685
265,31	9,734
265,52	9,624
265,74	9,570
265,95	9,571
266,16	9,579
266,37	9,516
266,58	9,426
266,79	9,389
267,01	9,338
267,22	9,382
267,43	9,435
267,64	9,407
267,85	9,294
268,06	9,330
268,28	9,286
268,49	9,304
268,70	9,204
268,91	9,210
269,12	9,157
269,33	9,222
269,55	9,193
269,76	9,143
269,97	9,140
270,18	9,137
270,39	9,071
270,60	9,032
270,81	9,079
271,03	9,017
271,24	9,112
271,45	9,122
271,66	9,325
271,87	9,346
272,08	9,346
272,29	9,285
272,51	9,319
272,72	9,318
272,93	9,340
273,14	9,357
273,35	9,226
273,56	9,208
273,77	9,253
273,99	9,219
274,20	9,149
274,41	9,150
274,62	9,232
274,83	9,294
275,04	9,089
275,25	9,011
275,47	8,934
275,68	8,728
275,89	8,708
276,10	8,770
276,31	8,800
276,52	8,798
276,73	8,865
276,94	8,834
277,15	8,876
277,37	8,802
277,58	8,858
277,79	8,750
278,00	8,737
278,21	8,678
278,42	8,664
278,63	8,679
278,84	8,678
279,05	8,732
279,27	8,641
279,48	8,728
279,69	8,639
279,90	8,733
280,11	8,645
280,32	8,562
280,53	8,576
280,74	8,588
280,95	8,609
281,17	8,563
281,38	8,485
281,59	8,461
281,80	8,521
282,01	8,562
282,22	8,438
282,43	8,507
282,64	8,467
282,85	8,472
283,06	8,436
283,27	8,437
283,48	8,469
283,70	8,399
283,91	8,363
284,12	8,263
284,33	8,181
284,54	8,092
284,75	8,158
284,96	8,155
285,17	8,166
285,38	8,261
285,59	8,281
285,80	8,310
286,01	8,357
286,22	8,383
286,44	8,381
286,65	8,375
286,86	8,326
287,07	8,249
287,28	8,211
287,49	8,177
287,70	8,150
287,91	8,150
288,12	8,166
288,33	8,198
288,54	8,233
288,75	8,219
288,96	8,279
289,17	8,224
289,38	8,254
289,59	8,248
289,81	8,295
290,02	8,243
290,23	8,282
290,44	8,176
290,65	8,292
290,86	8,260
291,07	8,265
291,28	8,322
291,49	8,314
291,70	8,313
291,91	8,287
292,12	8,339
292,33	8,355
292,54	8,317
292,75	8,312
292,96	8,344
293,17	8,402
293,38	8,384
293,59	8,408
293,80	8,408
294,01	8,475
294,22	8,456
294,43	8,480
294,64	8,381
294,85	8,332
295,06	8,361
295,27	8,321
295,48	8,415
295,69	8,453
295,91	8,461
296,12	8,465
296,33	8,463
296,54	8,488
296,75	8,461
296,96	8,435
297,17	8,417
297,38	8,404
297,59	8,381
297,80	8,346
298,01	8,314
298,22	8,276
298,43	8,217
298,64	8,129
298,85	8,121
299,06	7,985
299,27	8,015
299,48	8,038
299,69	8,059
299,90	8,142
300,11	8,156
300,32	8,049
300,53	7,998
300,74	8,084
300,95	8,086
301,16	8,104
301,37	8,174
301,58	8,174
301,79	8,031
302,00	8,085
302,21	7,988
302,42	7,999
302,63	7,960
302,84	8,010
303,04	8,050
303,25	8,088
303,46	7,997
303,67	8,049
303,88	7,979
304,09	7,944
304,30	7,927
304,51	8,005
304,72	7,986
304,93	8,023
305,14	8,021
305,35	8,071
305,56	7,917
305,77	7,882
305,98	7,765
306,19	7,704
306,40	7,792
306,61	7,769
306,82	7,735
307,03	7,664
307,24	7,730
307,45	7,774
307,66	7,863
307,87	7,963
308,08	8,074
308,29	8,010
308,50	7,911
308,71	7,852
308,91	7,891
309,12	7,918
309,33	7,961
309,54	8,039
309,75	8,183
309,96	8,216
310,17	8,201
310,38	8,174
310,59	8,248
310,80	8,307
311,01	8,270
311,22	8,280
311,43	8,382
311,64	8,271
311,85	8,458
312,06	8,375
312,27	8,386
312,47	8,417
312,68	8,366
312,89	8,378
313,10	8,395
313,31	8,443
313,52	8,354
313,73	8,322
313,94	8,277
314,15	8,287
314,36	8,375
314,57	8,516
314,78	8,502
314,99	8,579
315,19	8,672
315,40	8,636
315,61	8,610
315,82	8,583
316,03	8,521
316,24	8,590
316,45	8,546
316,66	8,618
316,87	8,623
317,08	8,602
317,29	8,483
317,49	8,542
317,70	8,495
317,91	8,360
318,12	8,426
318,33	8,527
318,54	8,581
318,75	8,647
318,96	8,752
319,17	8,608
319,38	8,644
319,58	8,692
319,79	8,776
320,00	8,781
320,21	8,779
320,42	8,694
320,63	8,651
320,84	8,495
321,05	8,528
321,26	8,697
321,46	8,712
321,67	8,700
321,88	8,673
322,09	8,682
322,30	8,626
322,51	8,558
322,72	8,576
322,93	8,553
323,13	8,560
323,34	8,497
323,55	8,423
323,76	8,483
323,97	8,443
324,18	8,395
324,39	8,437
324,60	8,338
324,80	8,366
325,01	8,322
325,22	8,356
325,43	8,369
325,64	8,292
325,85	8,361
326,06	8,377
326,26	8,416
326,47	8,487
326,68	8,447
326,89	8,486
327,10	8,375
327,31	8,283
327,52	8,304
327,72	8,260
327,93	8,174
328,14	8,156
328,35	8,270
328,56	8,272
328,77	8,309
328,97	8,308
329,18	8,372
329,39	8,420
329,60	8,438
329,81	8,523
330,02	8,491
330,22	8,504
330,43	8,471
330,64	8,566
330,85	8,595
331,06	8,588
331,27	8,580
331,47	8,551
331,68	8,534
331,89	8,646
332,10	8,580
332,31	8,584
332,52	8,699
332,72	8,727
332,93	8,688
333,14	8,816
333,35	8,885
333,56	8,876
333,76	8,930
333,97	8,804
334,18	8,864
334,39	8,863
334,60	8,943
334,81	8,911
335,01	9,005
335,22	8,955
335,43	8,948
335,64	8,963
335,85	8,989
336,05	9,047
336,26	9,103
336,47	9,123
336,68	9,186
336,89	9,182
337,09	9,232
337,30	9,300
337,51	9,304
337,72	9,364
337,93	9,337
338,13	9,314
338,34	9,331
338,55	9,363
338,76	9,456
338,96	9,486
339,17	9,427
339,38	9,487
339,59	9,501
339,80	9,503
340,00	9,525
340,21	9,517
340,42	9,629
340,63	9,632
340,84	9,707
341,04	9,680
341,25	9,695
341,46	9,715
341,67	9,707
341,87	9,658
342,08	9,614
342,29	9,692
342,50	9,711
342,70	9,738
342,91	9,670
343,12	9,745
343,33	9,775
343,54	9,780
343,74	9,779
343,95	9,753
344,16	9,784
344,37	9,762
344,57	9,721
344,78	9,751
344,99	9,696
345,20	9,685
345,40	9,654
345,61	9,745
345,82	9,672
346,03	9,678
346,23	9,712
346,44	9,797
346,65	9,810
346,86	9,821
347,06	9,788
347,27	9,788
347,48	9,773
347,69	9,813
347,89	9,843
348,10	9,953
348,31	10,012
348,51	10,043
348,72	9,919
348,93	9,938
349,14	9,913
349,34	9,903
349,55	9,924
349,76	9,920
349,97	9,929
350,17	9,935
350,38	9,873
350,59	9,879
350,79	9,914
351,00	9,937
351,21	9,903
351,42	9,818
351,62	9,776
351,83	9,867
352,04	9,865
352,25	9,814
352,45	9,822
352,66	9,948
352,87	9,950
353,07	9,917
353,28	9,884
353,49	9,828
353,69	9,836
353,90	9,883
354,11	9,907
354,32	9,939
354,52	9,968
354,73	9,987
354,94	9,999
355,14	9,994
355,35	9,994
355,56	10,089
355,76	10,095
355,97	10,026
356,18	10,045
356,39	10,067
356,59	10,150
356,80	10,179
357,01	10,217
357,21	10,261
357,42	10,300
357,63	10,321
357,83	10,321
358,04	10,310
358,25	10,261
358,45	10,278
358,66	10,235
358,87	10,252
359,07	10,178
359,28	10,259
359,49	10,316
359,69	10,345
359,90	10,337
360,11	10,398
360,31	10,378
360,52	10,363
360,73	10,329
360,93	10,294
361,14	10,313
361,35	10,424
361,55	10,410
361,76	10,396
361,97	10,448
362,17	10,447
362,38	10,436
362,59	10,438
362,79	10,466
363,00	10,503
363,21	10,557
363,41	10,580
363,62	10,573
363,83	10,583
364,03	10,580
364,24	10,627
364,45	10,548
364,65	10,524
364,86	10,573
365,07	10,612
365,27	10,595
365,48	10,576
365,68	10,554
365,89	10,600
366,10	10,617
366,30	10,621
366,51	10,646
366,72	10,632
366,92	10,615
367,13	10,625
367,34	10,650
367,54	10,604
367,75	10,597
367,95	10,657
368,16	10,647
368,37	10,620
368,57	10,627
368,78	10,583
368,99	10,626
369,19	10,612
369,40	10,621
369,60	10,577
369,81	10,537
370,02	10,513
370,22	10,590
370,43	10,564
370,64	10,563
370,84	10,559
371,05	10,527
371,25	10,598
371,46	10,593
371,67	10,617
371,87	10,588
372,08	10,594
372,28	10,582
372,49	10,543
372,70	10,514
372,90	10,459
373,11	10,472
373,31	10,439
373,52	10,484
373,73	10,494
373,93	10,459
374,14	10,485
374,34	10,466
374,55	10,471
374,76	10,551
374,96	10,591
375,17	10,626
375,37	10,624
375,58	10,649
375,78	10,652
375,99	10,678
376,20	10,714
376,40	10,700
376,61	10,659
376,81	10,648
377,02	10,709
377,23	10,801
377,43	10,762
377,64	10,756
377,84	10,728
378,05	10,748
378,25	10,792
378,46	10,788
378,66	10,854
378,87	10,835
379,08	10,845
379,28	10,893
379,49	10,882
379,69	10,884
379,90	10,910
380,10	10,959
380,31	10,971
380,52	10,963
380,72	10,969
380,93	10,938
381,13	11,012
381,34	11,050
381,54	11,039
381,75	11,035
381,95	11,051
382,16	11,110
382,37	11,167
382,57	11,167
382,78	11,141
382,98	11,168
383,19	11,178
383,39	11,239
383,60	11,287
383,80	11,254
384,01	11,225
384,21	11,250
384,42	11,283
384,62	11,277
384,83	11,304
385,04	11,329
385,24	11,376
385,45	11,402
385,65	11,426
385,86	11,441
386,06	11,435
386,27	11,448
386,47	11,458
386,68	11,467
386,88	11,487
387,09	11,492
387,29	11,493
387,50	11,470
387,70	11,466
387,91	11,499
388,11	11,506
388,32	11,510
388,52	11,492
388,73	11,523
388,93	11,539
389,14	11,592
389,34	11,609
389,55	11,622
389,75	11,580
389,96	11,584
390,16	11,581
390,37	11,581
390,57	11,606
390,78	11,581
390,98	11,610
391,19	11,606
391,39	11,584
391,60	11,580
391,80	11,594
392,01	11,586
392,21	11,598
392,42	11,592
392,62	11,576
392,83	11,567
393,03	11,540
393,24	11,549
393,44	11,561
393,65	11,541
393,85	11,524
394,06	11,549
394,26	11,521
394,47	11,492
394,67	11,496
394,88	11,485
395,08	11,488
395,29	11,497
395,49	11,508
395,70	11,495
395,90	11,514
396,10	11,476
396,31	11,471
396,51	11,502
396,72	11,492
396,92	11,491
397,13	11,478
397,33	11,493
397,54	11,506
397,74	11,497
397,95	11,510
398,15	11,554
398,36	11,565
398,56	11,554
398,76	11,555
398,97	11,569
399,17	11,558
399,38	11,582
399,58	11,576
399,79	11,572
399,99	11,575
400,20	11,568
400,40	11,566
400,61	11,564
400,81	11,540
401,01	11,534
401,22	11,488
401,42	11,532
401,63	11,544
401,83	11,534
402,04	11,523
402,24	11,550
402,44	11,586
402,65	11,577
402,85	11,591
403,06	11,609
403,26	11,623
403,47	11,601
403,67	11,588
403,87	11,634
404,08	11,655
404,28	11,630
404,49	11,645
404,69	11,670
404,90	11,689
405,10	11,703
405,30	11,727
405,51	11,751
405,71	11,730
405,92	11,775
406,12	11,770
406,32	11,778
406,53	11,758
406,73	11,792
406,94	11,862
407,14	11,847
407,34	11,842
407,55	11,861
407,75	11,871
407,96	11,869
408,16	11,906
408,37	11,886
408,57	11,928
408,77	11,922
408,98	11,926
409,18	11,924
409,38	11,938
409,59	11,940
409,79	11,909
410,00	11,943
410,20	11,920
410,40	11,892
410,61	11,871
410,81	11,860
411,02	11,877
411,22	11,879
411,42	11,908
411,63	11,913
411,83	11,919
412,03	11,935
412,24	11,932
412,44	11,944
412,65	11,957
412,85	11,955
413,05	11,960
413,26	11,981
413,46	12,016
413,66	12,029
413,87	12,019
414,07	12,002
414,28	12,025
414,48	12,035
414,68	12,034
414,89	11,997
415,09	12,008
415,29	12,031
415,50	12,038
415,70	12,060
415,90	12,065
416,11	12,075
416,31	12,084
416,52	12,066
416,72	12,066
416,92	12,076
417,13	12,086
417,33	12,070
417,53	12,074
417,74	12,065
417,94	12,089
418,14	12,103
418,35	12,094
418,55	12,116
418,75	12,125
418,96	12,113
419,16	12,103
419,36	12,096
419,57	12,105
419,77	12,108
419,97	12,100
420,18	12,099
420,38	12,096
420,58	12,091
420,79	12,088
420,99	12,096
421,19	12,107
421,40	12,106
421,60	12,106
421,80	12,094
422,01	12,092
422,21	12,088
422,41	12,062
422,62	12,070
422,82	12,083
423,02	12,086
423,22	12,075
423,43	12,074
423,63	12,064
423,83	12,051
424,04	12,050
424,24	12,051
424,44	12,061
424,65	12,050
424,85	12,067
425,05	12,063
425,26	12,065
425,46	12,055
425,66	12,064
425,86	12,056
426,07	12,061
426,27	12,054
426,47	12,046
426,68	12,040
426,88	12,024
427,08	12,040
427,28	12,063
427,49	12,058
427,69	12,043
427,89	12,006
428,10	11,980
428,30	11,980
428,50	11,965
428,70	11,964
428,91	11,968
429,11	11,972
429,31	11,966
429,52	11,930
429,72	11,916
429,92	11,906
430,12	11,895
430,33	11,869
430,53	11,860
430,73	11,851
430,93	11,820
431,14	11,824
431,34	11,858
431,54	11,870
431,75	11,815
431,95	11,802
432,15	11,782
432,35	11,783
432,56	11,782
432,76	11,786
432,96	11,802
433,16	11,807
433,37	11,783
433,57	11,769
433,77	11,781
433,97	11,785
434,18	11,792
434,38	11,794
434,58	11,820
434,78	11,830
434,99	11,831
435,19	11,833
435,39	11,797
435,59	11,827
435,80	11,845
436,00	11,843
436,20	11,833
436,40	11,841
436,61	11,832
436,81	11,833
437,01	11,844
437,21	11,837
437,41	11,832
437,62	11,821
437,82	11,832
438,02	11,824
438,22	11,810
438,43	11,812
438,63	11,846
438,83	11,862
439,03	11,857
439,23	11,878
439,44	11,872
439,64	11,867
439,84	11,886
440,04	11,887
440,25	11,915
440,45	11,955
440,65	11,946
440,85	11,968
441,05	11,966
441,26	11,959
441,46	11,950
441,66	11,948
441,86	11,962
442,06	11,977
442,27	11,970
442,47	11,982
442,67	11,975
442,87	11,975
443,07	11,976
443,28	11,985
443,48	11,968
443,68	11,946
443,88	11,961
444,08	11,974
444,29	11,972
444,49	11,957
444,69	11,963
444,89	11,974
445,09	11,988
445,30	11,947
445,50	11,949
445,70	11,951
445,90	11,963
446,10	11,950
446,30	11,940
446,51	11,925
446,71	11,922
446,91	11,922
447,11	11,923
447,31	11,902
447,51	11,905
447,72	11,920
447,92	11,926
448,12	11,917
448,32	11,901
448,52	11,914
448,72	11,907
448,93	11,898
449,13	11,904
449,33	11,892
449,53	11,889
449,73	11,875
449,93	11,890
450,14	11,887
450,34	11,890
450,54	11,885
450,74	11,874
450,94	11,848
451,14	11,843
451,35	11,851
451,55	11,844
451,75	11,818
451,95	11,805
452,15	11,789
452,35	11,777
452,55	11,766
452,76	11,729
452,96	11,718
453,16	11,684
453,36	11,680
453,56	11,700
453,76	11,709
453,96	11,713
454,16	11,692
454,37	11,686
454,57	11,687
454,77	11,667
454,97	11,682
455,17	11,684
455,37	11,676
455,57	11,676
455,77	11,663
455,98	11,670
456,18	11,651
456,38	11,652
456,58	11,637
456,78	11,660
456,98	11,649
457,18	11,623
457,38	11,614
457,59	11,642
457,79	11,623
457,99	11,642
458,19	11,649
458,39	11,647
458,59	11,671
458,79	11,686
458,99	11,685
459,19	11,667
459,39	11,673
459,60	11,688
459,80	11,678
460,00	11,665
460,20	11,649
460,40	11,640
460,60	11,645
460,80	11,626
461,00	11,614
461,20	11,613
461,40	11,585
461,61	11,594
461,81	11,572
462,01	11,600
462,21	11,579
462,41	11,574
462,61	11,560
462,81	11,562
463,01	11,575
463,21	11,539
463,41	11,551
463,61	11,520
463,81	11,517
464,01	11,527
464,22	11,524
464,42	11,528
464,62	11,534
464,82	11,529
465,02	11,537
465,22	11,553
465,42	11,551
465,62	11,554
465,82	11,529
466,02	11,519
466,22	11,502
466,42	11,510
466,62	11,504
466,82	11,493
467,02	11,502
467,22	11,478
467,43	11,436
467,63	11,452
467,83	11,437
468,03	11,462
468,23	11,448
468,43	11,424
468,63	11,429
468,83	11,467
469,03	11,462
469,23	11,442
469,43	11,439
469,63	11,422
469,83	11,407
470,03	11,404
470,23	11,389
470,43	11,383
470,63	11,386
470,83	11,359
471,03	11,341
471,23	11,343
471,43	11,351
471,63	11,340
471,83	11,333
472,03	11,321
472,23	11,329
472,43	11,334
472,64	11,329
472,84	11,342
473,04	11,347
473,24	11,371
473,44	11,363
473,64	11,336
473,84	11,329
474,04	11,360
474,24	11,325
474,44	11,308
474,64	11,303
474,84	11,294
475,04	11,261
475,24	11,254
475,44	11,265
475,64	11,245
475,84	11,279
476,04	11,291
476,24	11,292
476,44	11,322
476,64	11,320
476,84	11,302
477,04	11,306
477,24	11,305
477,44	11,280
477,64	11,289
477,84	11,276
478,04	11,279
478,24	11,274
478,44	11,279
478,64	11,278
478,84	11,270
479,04	11,259
479,24	11,239
479,44	11,228
479,64	11,225
479,83	11,209
480,03	11,199
480,23	11,192
480,43	11,192
480,63	11,189
480,83	11,187
481,03	11,174
481,23	11,170
481,43	11,185
481,63	11,180
481,83	11,178
482,03	11,185
482,23	11,192
482,43	11,182
482,63	11,178
482,83	11,176
483,03	11,172
483,23	11,168
483,43	11,170
483,63	11,163
483,83	11,150
484,03	11,155
484,23	11,165
484,43	11,173
484,63	11,164
484,83	11,163
485,03	11,166
485,22	11,155
485,42	11,140
485,62	11,140
485,82	11,145
486,02	11,141
486,22	11,123
486,42	11,116
486,62	11,104
486,82	11,100
487,02	11,093
487,22	11,100
487,42	11,101
487,62	11,106
487,82	11,099
488,02	11,090
488,22	11,077
488,41	11,064
488,61	11,055
488,81	11,042
489,01	11,041
489,21	11,029
489,41	11,010
489,61	11,004
489,81	10,988
490,01	10,982
490,21	10,960
490,41	10,948
490,61	10,940
490,80	10,935
491,00	10,935
491,20	10,939
491,40	10,951
491,60	10,946
491,80	10,953
492,00	10,954
492,20	10,941
492,40	10,943
492,60	10,935
492,80	10,938
492,99	10,926
493,19	10,917
493,39	10,914
493,59	10,898
493,79	10,904
493,99	10,896
494,19	10,870
494,39	10,853
494,59	10,848
494,78	10,820
494,98	10,802
495,18	10,793
495,38	10,776
495,58	10,757
495,78	10,744
495,98	10,745
496,18	10,729
496,38	10,722
496,57	10,700
496,77	10,674
496,97	10,663
497,17	10,636
497,37	10,646
497,57	10,653
497,77	10,657
497,96	10,641
498,16	10,621
498,36	10,632
498,56	10,642
498,76	10,662
498,96	10,653
499,16	10,667
499,36	10,644
499,55	10,618
499,75	10,609
499,95	10,616
500,15	10,600
500,35	10,583
500,55	10,583
500,75	10,561
500,94	10,568
501,14	10,546
501,34	10,544
501,54	10,544
501,74	10,537
501,94	10,540
502,13	10,522
502,33	10,513
502,53	10,528
502,73	10,511
502,93	10,501
503,13	10,479
503,32	10,467
503,52	10,459
503,72	10,455
503,92	10,442
504,12	10,421
504,32	10,439
504,51	10,408
504,71	10,402
504,91	10,393
505,11	10,394
505,31	10,396
505,51	10,393
505,70	10,369
505,90	10,349
506,10	10,337
506,30	10,369
506,50	10,383
506,70	10,373
506,89	10,404
507,09	10,409
507,29	10,400
507,49	10,415
507,69	10,405
507,88	10,408
508,08	10,406
508,28	10,388
508,48	10,357
508,68	10,345
508,87	10,354
509,07	10,322
509,27	10,310
509,47	10,295
509,67	10,275
509,86	10,257
510,06	10,248
510,26	10,258
510,46	10,224
510,66	10,222
510,85	10,193
511,05	10,189
511,25	10,177
511,45	10,196
511,64	10,190
511,84	10,203
512,04	10,204
512,24	10,209
512,44	10,199
512,63	10,194
512,83	10,177
513,03	10,155
513,23	10,158
513,42	10,132
513,62	10,133
513,82	10,142
514,02	10,120
514,22	10,104
514,41	10,120
514,61	10,089
514,81	10,074
515,01	10,056
515,20	10,040
515,40	10,022
515,60	10,008
515,80	10,000
515,99	9,998
516,19	10,014
516,39	10,010
516,59	10,026
516,78	10,010
516,98	9,995
517,18	9,975
517,38	9,942
517,57	9,937
517,77	9,953
517,97	9,948
518,17	9,955
518,36	9,951
518,56	9,918
518,76	9,916
518,96	9,873
519,15	9,870
519,35	9,867
519,55	9,854
519,75	9,863
519,94	9,853
520,14	9,853
520,34	9,864
520,54	9,857
520,73	9,857
520,93	9,849
521,13	9,862
521,32	9,866
521,52	9,870
521,72	9,877
521,92	9,882
522,11	9,889
522,31	9,880
522,51	9,887
522,70	9,882
522,90	9,895
523,10	9,879
523,30	9,872
523,49	9,853
523,69	9,841
523,89	9,818
524,08	9,802
524,28	9,794
524,48	9,787
524,68	9,770
524,87	9,775
525,07	9,757
525,27	9,742
525,46	9,755
525,66	9,739
525,86	9,728
526,05	9,744
526,25	9,739
526,45	9,727
526,65	9,724
526,84	9,714
527,04	9,707
527,24	9,712
527,43	9,723
527,63	9,714
527,83	9,717
528,02	9,710
528,22	9,693
528,42	9,684
528,61	9,668
528,81	9,663
529,01	9,660
529,20	9,668
529,40	9,675
529,60	9,669
529,79	9,663
529,99	9,661
530,19	9,650
530,38	9,631
530,58	9,634
530,78	9,634
530,97	9,650
531,17	9,652
531,37	9,649
531,56	9,644
531,76	9,633
531,96	9,624
532,15	9,605
532,35	9,593
532,55	9,593
532,74	9,585
532,94	9,579
533,14	9,557
533,33	9,540
533,53	9,519
533,73	9,490
533,92	9,475
534,12	9,461
534,32	9,444
534,51	9,440
534,71	9,427
534,90	9,408
535,10	9,394
535,30	9,377
535,49	9,376
535,69	9,368
535,89	9,358
536,08	9,339
536,28	9,328
536,48	9,333
536,67	9,337
536,87	9,320
537,06	9,320
537,26	9,315
537,46	9,293
537,65	9,297
537,85	9,281
538,05	9,270
538,24	9,259
538,44	9,237
538,63	9,231
538,83	9,242
539,03	9,231
539,22	9,207
539,42	9,186
539,61	9,180
539,81	9,178
540,01	9,174
540,20	9,173
540,40	9,165
540,59	9,147
540,79	9,153
540,99	9,151
541,18	9,138
541,38	9,119
541,57	9,103
541,77	9,092
541,97	9,091
542,16	9,071
542,36	9,060
542,55	9,047
542,75	9,025
542,95	9,001
543,14	8,980
543,34	8,963
543,53	8,960
543,73	8,963
543,93	8,970
544,12	8,983
544,32	8,970
544,51	8,957
544,71	8,952
544,90	8,950
545,10	8,967
545,30	8,971
545,49	8,971
545,69	8,982
545,88	8,953
546,08	8,944
546,27	8,939
546,47	8,920
546,67	8,908
546,86	8,893
547,06	8,888
547,25	8,891
547,45	8,887
547,64	8,870
547,84	8,860
548,03	8,886
548,23	8,862
548,43	8,841
548,62	8,829
548,82	8,838
549,01	8,835
549,21	8,822
549,40	8,818
549,60	8,792
549,79	8,801
549,99	8,775
550,19	8,748
550,38	8,759
550,58	8,756
550,77	8,745
550,97	8,732
551,16	8,745
551,36	8,756
551,55	8,752
551,75	8,742
551,94	8,725
552,14	8,677
552,33	8,674
552,53	8,679
552,72	8,650
552,92	8,623
553,12	8,598
553,31	8,604
553,51	8,616
553,70	8,609
553,90	8,590
554,09	8,614
554,29	8,615
554,48	8,605
554,68	8,601
554,87	8,603
555,07	8,602
555,26	8,614
555,46	8,596
555,65	8,565
555,85	8,555
556,04	8,544
556,24	8,568
556,43	8,558
556,63	8,556
556,82	8,561
557,02	8,552
557,21	8,516
557,41	8,517
557,60	8,496
557,80	8,493
557,99	8,462
558,19	8,446
558,38	8,410
558,58	8,401
558,77	8,389
558,97	8,401
559,16	8,374
559,36	8,337
559,55	8,348
559,75	8,340
559,94	8,297
560,14	8,315
560,33	8,323
560,53	8,297
560,72	8,279
560,91	8,245
561,11	8,246
561,30	8,201
561,50	8,201
561,69	8,186
561,89	8,188
562,08	8,220
562,28	8,206
562,47	8,190
562,67	8,167
562,86	8,173
563,06	8,162
563,25	8,117
563,45	8,121
563,64	8,094
563,83	8,072
564,03	8,091
564,22	8,097
564,42	8,105
564,61	8,109
564,81	8,125
565,00	8,136
565,20	8,127
565,39	8,109
565,58	8,109
565,78	8,107
565,97	8,099
566,17	8,082
566,36	8,103
566,56	8,111
566,75	8,110
566,95	8,103
567,14	8,076
567,33	8,064
567,53	8,064
567,72	8,051
567,92	8,049
568,11	7,995
568,31	8,008
568,50	7,985
568,69	7,951
568,89	7,935
569,08	7,942
569,28	7,922
569,47	7,918
569,67	7,942
569,86	7,926
570,05	7,926
570,25	7,936
570,44	7,909
570,64	7,904
570,83	7,887
571,02	7,886
571,22	7,916
571,41	7,889
571,61	7,886
571,80	7,900
571,99	7,881
572,19	7,874
572,38	7,882
572,58	7,876
572,77	7,896
572,96	7,903
573,16	7,931
573,35	7,929
573,55	7,917
573,74	7,892
573,93	7,884
574,13	7,901
574,32	7,901
574,52	7,927
574,71	7,970
574,90	7,965
575,10	7,988
575,29	7,972
575,49	7,995
575,68	8,010
575,87	8,004
576,07	7,994
576,26	7,986
576,45	7,977
576,65	7,942
576,84	7,905
577,04	7,885
577,23	7,849
577,42	7,825
577,62	7,794
577,81	7,762
578,00	7,767
578,20	7,738
578,39	7,713
578,58	7,681
578,78	7,697
578,97	7,722
579,16	7,735
579,36	7,715
579,55	7,715
579,75	7,694
579,94	7,728
580,13	7,706
580,33	7,696
580,52	7,719
580,71	7,725
580,91	7,716
581,10	7,705
581,29	7,680
581,49	7,667
581,68	7,693
581,87	7,680
582,07	7,692
582,26	7,691
582,45	7,681
582,65	7,663
582,84	7,689
583,03	7,647
583,23	7,662
583,42	7,670
583,61	7,651
583,81	7,682
584,00	7,620
584,19	7,578
584,39	7,554
584,58	7,559
584,77	7,575
584,97	7,566
585,16	7,549
585,35	7,554
585,55	7,567
585,74	7,558
585,93	7,558
586,13	7,556
586,32	7,507
586,51	7,411
586,70	7,420
586,90	7,417
587,09	7,412
587,28	7,372
587,48	7,390
587,67	7,395
587,86	7,379
588,06	7,363
588,25	7,387
588,44	7,415
588,63	7,460
588,83	7,481
589,02	7,518
589,21	7,514
589,41	7,526
589,60	7,543
589,79	7,553
589,98	7,533
590,18	7,515
590,37	7,553
590,56	7,495
590,76	7,502
590,95	7,481
591,14	7,459
591,33	7,419
591,53	7,438
591,72	7,411
591,91	7,431
592,11	7,430
592,30	7,406
592,49	7,395
592,68	7,384
592,88	7,370
593,07	7,393
593,26	7,363
593,45	7,346
593,65	7,321
593,84	7,301
594,03	7,333
594,22	7,332
594,42	7,344
594,61	7,291
594,80	7,289
594,99	7,264
595,19	7,239
595,38	7,229
595,57	7,199
595,76	7,235
595,96	7,254
596,15	7,293
596,34	7,299
596,53	7,258
596,73	7,275
596,92	7,277
597,11	7,244
597,30	7,244
597,50	7,232
597,69	7,197
597,88	7,190
598,07	7,154
598,27	7,194
598,46	7,195
598,65	7,154
598,84	7,164
599,04	7,190
599,23	7,200
599,42	7,192
599,61	7,175
599,80	7,205
600,00	7,176
600,19	7,157
600,38	7,112
600,57	7,091
600,76	7,101
600,96	7,095
601,15	7,093
601,34	7,085
601,53	7,073
601,73	7,089
601,92	7,105
602,11	7,077
602,30	7,100
602,49	7,090
602,69	7,096
602,88	7,105
603,07	7,154
603,26	7,131
603,45	7,114
603,65	7,088
603,84	7,084
604,03	7,079
604,22	7,046
604,41	7,059
604,61	7,037
604,80	7,027
604,99	7,019
605,18	7,002
605,37	7,013
605,56	6,987
605,76	6,943
605,95	6,922
606,14	6,938
606,33	6,956
606,52	6,946
606,72	6,949
606,91	6,937
607,10	6,924
607,29	6,940
607,48	6,964
607,67	6,957
607,87	6,921
608,06	6,909
608,25	6,933
608,44	6,906
608,63	6,906
608,82	6,948
609,02	6,921
609,21	6,925
609,40	6,926
609,59	6,929
609,78	6,969
609,97	6,959
610,16	6,909
610,36	6,911
610,55	6,911
610,74	6,885
610,93	6,835
611,12	6,833
611,31	6,861
611,51	6,825
611,70	6,842
611,89	6,836
612,08	6,864
612,27	6,860
612,46	6,831
612,65	6,812
612,85	6,817
613,04	6,841
613,23	6,830
613,42	6,767
613,61	6,756
613,80	6,739
613,99	6,702
614,18	6,692
614,38	6,662
614,57	6,656
614,76	6,603
614,95	6,601
615,14	6,632
615,33	6,611
615,52	6,644
615,71	6,617
615,90	6,632
616,10	6,637
616,29	6,641
616,48	6,624
616,67	6,627
616,86	6,646
617,05	6,674
617,24	6,699
617,43	6,703
617,62	6,722
617,82	6,666
618,01	6,650
618,20	6,650
618,39	6,649
618,58	6,648
618,77	6,677
618,96	6,640
619,15	6,602
619,34	6,582
619,53	6,535
619,73	6,532
619,92	6,492
620,11	6,481
620,30	6,459
620,49	6,444
620,68	6,457
620,87	6,462
621,06	6,460
621,25	6,458
621,44	6,425
621,63	6,405
621,82	6,434
622,02	6,424
622,21	6,378
622,40	6,358
622,59	6,383
622,78	6,372
622,97	6,314
623,16	6,270
623,35	6,218
623,54	6,220
623,73	6,183
623,92	6,194
624,11	6,171
624,30	6,178
624,49	6,163
624,68	6,124
624,87	6,111
625,07	6,167
625,26	6,214
625,45	6,209
625,64	6,228
625,83	6,224
626,02	6,225
626,21	6,242
626,40	6,230
626,59	6,211
626,78	6,234
626,97	6,262
627,16	6,242
627,35	6,277
627,54	6,265
627,73	6,280
627,92	6,300
628,11	6,307
628,30	6,296
628,49	6,324
628,68	6,323
628,87	6,288
629,06	6,269
629,25	6,296
629,44	6,341
629,63	6,358
629,82	6,338
630,01	6,331
630,20	6,335
630,39	6,308
630,59	6,292
630,78	6,303
630,97	6,307
631,16	6,350
631,35	6,354
631,54	6,349
631,73	6,352
631,92	6,330
632,11	6,319
632,30	6,336
632,49	6,325
632,68	6,307
632,87	6,269
633,06	6,327
633,25	6,327
633,44	6,336
633,63	6,350
633,82	6,350
634,01	6,379
634,20	6,372
634,39	6,392
634,58	6,384
634,77	6,430
634,96	6,458
635,15	6,490
635,33	6,482
635,52	6,487
635,71	6,510
635,90	6,542
636,09	6,479
636,28	6,460
636,47	6,453
636,66	6,410
636,85	6,380
637,04	6,397
637,23	6,413
637,42	6,358
637,61	6,352
637,80	6,352
637,99	6,405
638,18	6,394
638,37	6,336
638,56	6,305
638,75	6,283
638,94	6,285
639,13	6,311
639,32	6,278
639,51	6,267
639,70	6,242
639,89	6,231
640,08	6,194
640,27	6,167
640,46	6,162
640,65	6,221
640,83	6,238
641,02	6,182
641,21	6,134
641,40	6,127
641,59	6,139
641,78	6,131
641,97	6,116
642,16	6,159
642,35	6,070
642,54	6,108
642,73	6,096
642,92	6,104
643,11	6,129
643,30	6,155
643,49	6,174
643,68	6,141
643,86	6,129
644,05	6,131
644,24	6,133
644,43	6,147
644,62	6,099
644,81	6,090
645,00	6,080
645,19	6,047
645,38	6,006
645,57	5,950
645,76	5,892
645,95	5,849
646,13	5,879
646,32	5,855
646,51	5,851
646,70	5,836
646,89	5,904
647,08	5,894
647,27	5,871
647,46	5,780
647,65	5,800
647,84	5,774
648,03	5,815
648,21	5,792
648,40	5,763
648,59	5,755
648,78	5,734
648,97	5,752
649,16	5,721
649,35	5,724
649,54	5,679
649,73	5,681
649,91	5,745
650,10	5,686
650,29	5,713
650,48	5,663
650,67	5,623
650,86	5,586
651,05	5,591
651,24	5,551
651,42	5,607
651,61	5,576
651,80	5,529
651,99	5,496
652,18	5,399
652,37	5,332
652,56	5,359
652,75	5,374
652,93	5,350
653,12	5,364
653,31	5,371
653,50	5,378
653,69	5,345
653,88	5,409
654,07	5,380
654,25	5,370
654,44	5,305
654,63	5,273
654,82	5,274
655,01	5,310
655,20	5,319
655,39	5,296
655,57	5,318
655,76	5,332
655,95	5,342
656,14	5,344
656,33	5,362
656,52	5,356
656,70	5,370
656,89	5,407
657,08	5,419
657,27	5,427
657,46	5,414
657,65	5,398
657,83	5,376
658,02	5,391
658,21	5,347
658,40	5,304
658,59	5,284
658,78	5,279
658,96	5,300
659,15	5,290
659,34	5,358
659,53	5,321
659,72	5,342
659,90	5,340
660,09	5,365
660,28	5,368
660,47	5,368
660,66	5,416
660,85	5,420
661,03	5,465
661,22	5,424
661,41	5,388
661,60	5,455
661,79	5,406
661,97	5,433
662,16	5,471
662,35	5,481
662,54	5,472
662,73	5,553
662,91	5,471
663,10	5,476
663,29	5,523
663,48	5,526
663,67	5,557
663,85	5,535
664,04	5,488
664,23	5,500
664,42	5,507
664,60	5,465
664,79	5,464
664,98	5,489
665,17	5,443
665,36	5,422
665,54	5,383
665,73	5,426
665,92	5,470
666,11	5,410
666,29	5,450
666,48	5,428
666,67	5,421
666,86	5,416
667,05	5,428
667,23	5,402
667,42	5,348
667,61	5,342
667,80	5,287
667,98	5,275
668,17	5,293
668,36	5,329
668,55	5,375
668,73	5,355
668,92	5,345
669,11	5,358
669,30	5,420
669,48	5,391
669,67	5,410
669,86	5,374
670,05	5,391
670,23	5,384
670,42	5,500
670,61	5,533
670,80	5,400
670,98	5,406
671,17	5,396
671,36	5,398
671,55	5,347
671,73	5,402
671,92	5,408
672,11	5,366
672,29	5,366
672,48	5,319
672,67	5,374
672,86	5,362
673,04	5,399
673,23	5,489
673,42	5,440
673,61	5,443
673,79	5,438
673,98	5,409
674,17	5,434
674,35	5,479
674,54	5,529
674,73	5,514
674,92	5,618
675,10	5,610
675,29	5,601
675,48	5,614
675,66	5,603
675,85	5,702
676,04	5,733
676,22	5,718
676,41	5,719
676,60	5,739
676,79	5,763
676,97	5,815
677,16	5,810
677,35	5,793
677,53	5,856
677,72	5,777
677,91	5,834
678,09	5,878
678,28	5,834
678,47	5,797
678,65	5,821
678,84	5,825
679,03	5,813
679,22	5,797
679,40	5,882
679,59	5,811
679,78	5,840
679,96	5,826
680,15	5,910
680,34	5,933
680,52	5,946
680,71	5,947
680,90	5,972
681,08	5,920
681,27	5,977
681,46	5,977
681,64	6,005
681,83	5,960
682,02	5,929
682,20	5,969
682,39	5,932
682,58	6,019
682,76	5,998
682,95	5,998
683,14	5,908
683,32	5,907
683,51	5,981
683,69	5,947
683,88	5,892
684,07	5,816
684,25	5,796
684,44	5,703
684,63	5,640
684,81	5,782
685,00	5,739
685,19	5,732
685,37	5,690
685,56	5,592
685,75	5,589
685,93	5,630
686,12	5,649
686,30	5,595
686,49	5,659
686,68	5,713
686,86	5,743
687,05	5,683
687,24	5,627
687,42	5,689
687,61	5,674
687,79	5,607
687,98	5,587
688,17	5,562
688,35	5,535
688,54	5,534
688,73	5,551
688,91	5,473
689,10	5,487
689,28	5,437
689,47	5,377
689,66	5,506
689,84	5,491
690,03	5,483
690,21	5,528
690,40	5,517
690,59	5,627
690,77	5,463
690,96	5,543
691,14	5,443
691,33	5,413
691,52	5,383
691,70	5,362
691,89	5,318
692,07	5,355
692,26	5,301
692,45	5,345
692,63	5,314
692,82	5,289
693,00	5,275
693,19	5,222
693,37	5,191
693,56	5,301
693,75	5,368
693,93	5,287
694,12	5,305
694,30	5,328
694,49	5,311
694,68	5,368
694,86	5,335
695,05	5,319
695,23	5,337
695,42	5,441
695,60	5,479
695,79	5,550
695,98	5,539
696,16	5,473
696,35	5,428
696,53	5,418
696,72	5,550
696,90	5,604
697,09	5,645
697,27	5,628
697,46	5,605
697,65	5,580
697,83	5,460
698,02	5,440
698,20	5,409
698,39	5,437
698,57	5,497
698,76	5,410
698,94	5,450
699,13	5,450
699,31	5,387
699,50	5,331
699,68	5,316
699,87	5,264
700,06	5,283
700,24	5,436
700,43	5,383
700,61	5,346
700,80	5,351
700,98	5,237
701,17	5,224
701,35	5,238
701,54	5,207
701,72	5,188
701,91	5,109
702,09	5,189
702,28	5,167
702,46	5,146
702,65	5,199
702,83	5,154
703,02	5,253
703,20	5,299
703,39	5,201
703,57	5,197
703,76	5,171
703,94	5,174
704,13	5,132
704,31	5,159
704,50	5,090
704,68	5,218
704,87	5,154
705,05	5,063
705,24	5,117
705,42	5,018
705,61	4,925
705,79	4,949
705,98	4,885
706,16	4,822
706,35	4,853
706,53	4,908
706,72	4,816
706,90	4,790
707,09	4,804
707,27	4,778
707,46	4,719
707,64	4,792
707,83	4,841
708,01	4,775
708,20	4,710
708,38	4,744
708,57	4,708
708,75	4,667
708,94	4,669
709,12	4,837
709,31	4,888
709,49	4,942
709,68	4,990
709,86	4,869
710,04	4,889
710,23	4,893
710,41	4,851
710,60	5,001
710,78	5,045
710,97	5,032
711,15	5,120
711,34	5,116
711,52	5,045
711,71	5,089
711,89	5,137
712,07	5,142
712,26	5,171
712,44	5,120
712,63	5,055
712,81	5,047
713,00	5,038
713,18	5,100
713,37	5,023
713,55	5,095
713,73	5,106
713,92	5,061
714,10	5,131
714,29	5,055
714,47	5,036
714,66	5,038
714,84	5,110
715,02	5,163
715,21	5,159
715,39	5,157
715,58	5,084
715,76	5,211
715,95	5,194
716,13	5,171
716,31	5,238
716,50	5,170
716,68	5,293
716,87	5,343
717,05	5,312
717,23	5,204
717,42	5,291
717,60	5,357
717,79	5,362
717,97	5,419
718,15	5,355
718,34	5,362
718,52	5,396
718,71	5,345
718,89	5,310
719,07	5,240
719,26	5,256
719,44	5,328
719,63	5,242
719,81	5,211
719,99	5,249
720,18	5,275
720,36	5,259
720,55	5,212
720,73	5,167
720,91	5,217
721,10	5,315
721,28	5,400
721,47	5,372
721,65	5,490
721,83	5,466
722,02	5,544
722,20	5,583
722,38	5,521
722,57	5,397
722,75	5,274
722,94	5,236
723,12	5,176
723,30	5,229
723,49	5,100
723,67	5,126
723,85	5,196
724,04	5,127
724,22	5,176
724,40	5,035
724,59	5,067
724,77	5,002
724,96	5,118
725,14	5,040
725,32	4,931
725,51	5,064
725,69	5,066
725,87	5,145
726,06	5,005
726,24	4,953
726,42	4,888
726,61	4,976
726,79	5,010
726,97	4,834
727,16	4,802
727,34	4,812
727,52	4,807
727,71	4,828
727,89	4,733
728,07	4,707
728,26	4,690
728,44	4,810
728,62	4,734
728,81	4,652
728,99	4,763
729,17	4,737
729,36	4,773
729,54	4,715
729,72	4,669
729,91	4,665
730,09	4,687
730,27	4,726
730,46	4,741
730,64	4,786
730,82	4,893
731,00	4,902
731,19	4,895
731,37	4,887
731,55	4,769
731,74	4,698
731,92	4,686
732,10	4,577
732,29	4,401
732,47	4,300
732,65	4,330
732,83	4,322
733,02	4,272
733,20	4,194
733,38	4,214
733,57	4,103
733,75	4,203
733,93	4,196
734,12	4,161
734,30	4,234
734,48	4,199
734,66	4,331
734,85	4,251
735,03	4,283
735,21	4,354
735,40	4,413
735,58	4,388
735,76	4,359
735,94	4,323
736,13	4,245
736,31	4,264
736,49	4,192
736,67	3,966
736,86	3,960
737,04	3,932
737,22	4,041
737,40	3,972
737,59	3,908
737,77	3,751
737,95	3,632
738,14	3,802
738,32	3,830
738,50	3,685
738,68	3,640
738,87	3,627
739,05	3,625
739,23	3,696
739,41	3,737
739,60	3,723
739,78	3,799
739,96	3,776
740,14	3,667
740,33	3,620
740,51	3,700
740,69	3,682
740,87	3,745
741,05	3,770
741,24	3,828
741,42	3,801
741,60	3,685
741,78	3,621
741,97	3,559
742,15	3,535
742,33	3,446
742,51	3,482
742,70	3,620
742,88	3,658
743,06	3,626
743,24	3,596
743,42	3,670
743,61	3,627
743,79	3,765
743,97	3,711
744,15	3,743
744,34	3,834
744,52	3,796
744,70	3,868
744,88	3,675
745,06	3,823
745,25	3,845
745,43	3,783
745,61	3,771
745,79	3,806
745,97	3,942
746,16	3,893
746,34	3,828
746,52	3,720
746,70	3,905
746,88	3,903
747,07	3,781
747,25	3,749
747,43	3,724
747,61	3,842
747,79	3,848
747,97	3,794
748,16	3,582
748,34	3,529
748,52	3,452
748,70	3,639
748,88	3,863
749,07	3,983
749,25	3,962
749,43	3,895
749,61	4,105
749,79	4,289
749,97	4,208
750,16	4,284
750,34	4,354
750,52	4,394
750,70	4,455
750,88	4,411
751,06	4,415
751,25	4,377
751,43	4,476
751,61	4,495
751,79	4,465
751,97	4,582
752,15	4,602
752,34	4,459
752,52	4,500
752,70	4,611
752,88	4,589
753,06	4,437
753,24	4,504
753,42	4,586
753,61	4,498
753,79	4,390
753,97	4,544
754,15	4,420
754,33	4,412
754,51	4,490
754,69	4,421
754,88	4,219
755,06	4,345
755,24	4,325
755,42	4,186
755,60	4,066
755,78	3,914
755,96	4,076
756,14	3,890
756,33	4,049
756,51	4,062
756,69	4,134
756,87	3,995
757,05	3,853
757,23	3,727
757,41	3,699
757,59	3,703
757,78	3,675
757,96	3,767
758,14	3,968
758,32	3,953
758,50	3,963
758,68	3,985
758,86	3,991
759,04	3,914
759,22	4,021
759,40	4,013
759,59	4,224
759,77	4,157
759,95	4,035
760,13	4,079
760,31	4,038
760,49	4,100
760,67	3,940
760,85	3,739
761,03	3,782
761,21	3,687
761,39	3,571
761,58	3,678
761,76	3,589
761,94	3,624
762,12	3,622
762,30	3,639
762,48	3,706
762,66	3,706
762,84	3,815
763,02	3,621
763,20	3,739
763,38	3,646
763,56	3,705
763,74	3,820
763,93	3,627
764,11	3,657
764,29	3,583
764,47	3,541
764,65	3,467
764,83	3,480
765,01	3,431
765,19	3,513
765,37	3,438
765,55	3,378
765,73	3,396
765,91	3,265
766,09	3,341
766,27	3,255
766,45	3,340
766,63	3,469
766,81	3,581
766,99	3,543
767,18	3,569
767,36	3,541
767,54	3,598
767,72	3,543
767,90	3,554
768,08	3,614
768,26	3,701
768,44	3,664
768,62	3,720
768,80	3,821
768,98	3,680
769,16	3,687
769,34	3,633
769,52	3,809
769,70	3,806
769,88	3,736
770,06	3,857
770,24	3,852
770,42	3,849
770,60	3,622
770,78	3,790
770,96	3,900
771,14	3,923
771,32	4,054
771,50	3,869
771,68	3,990
771,86	4,078
772,04	4,062
772,22	4,081
772,40	4,015
772,58	3,731
772,76	3,661
772,94	3,768
773,12	3,795
773,30	3,809
773,48	3,690
773,66	3,503
773,84	3,364
774,02	3,446
774,20	3,268
774,38	3,453
774,56	3,396
774,74	2,936
774,92	3,275
775,10	3,051
775,28	2,950
775,46	2,692
775,64	2,797
775,82	2,952
776,00	2,974
776,18	2,882
776,36	3,001
776,54	3,039
776,72	3,013
776,90	3,150
777,08	2,851
777,26	2,978
777,44	3,026
777,62	2,930
777,80	3,008
777,98	3,117
778,16	3,179
778,33	2,909
778,51	2,612
778,69	2,671
778,87	2,814
779,05	2,818
779,23	2,820
779,41	2,897
779,59	2,710
779,77	2,614
779,95	2,705
780,13	2,523
780,31	2,393
780,49	2,142
780,67	2,239
780,85	2,368
781,03	2,446
781,21	2,299
781,39	2,324
781,56	2,324
781,74	2,108
781,92	1,925
782,10	1,777
782,28	1,571
782,46	1,772
782,64	1,827
782,82	2,046
783,00	2,001
783,18	1,983
783,36	1,929
783,54	2,199
783,72	2,174
783,89	1,630
784,07	1,739
784,25	1,497
784,43	1,366
784,61	1,421
784,79	1,276
784,97	1,380
785,15	1,350
785,33	1,279
785,51	1,101
785,69	1,407
785,86	1,473
786,04	1,985
786,22	1,854
786,40	2,211
786,58	2,262
786,76	1,977
786,94	1,952
787,12	2,183
787,30	2,442
787,48	2,692
787,65	2,804
787,83	2,854
788,01	2,905
788,19	2,898
788,37	2,591
788,55	2,652
788,73	2,514
788,91	2,322
789,08	2,384
789,26	2,362
789,44	2,379
789,62	2,263
789,80	2,279
789,98	2,546
790,16	2,678
790,34	2,781
790,51	2,895
790,69	2,920
790,87	3,146
791,05	2,972
791,23	3,466
791,41	3,622
791,59	3,146
791,76	3,193
791,94	3,357
792,12	3,625
792,30	3,694
792,48	3,793
792,66	3,901
792,84	4,161
793,01	4,257
793,19	4,437
793,37	4,359
793,55	4,194
793,73	4,067
793,91	4,133
794,08	4,153
794,26	4,203
794,44	4,087
794,62	3,993
794,80	4,225
794,98	3,967
795,15	4,019
795,33	4,077
795,51	3,949
795,69	3,996
795,87	4,139
796,05	4,295
796,22	4,546
796,40	4,653
796,58	4,496
796,76	4,247
796,94	4,037
797,11	4,341
797,29	4,213
797,47	4,118
797,65	4,327
797,83	3,980
798,00	3,907
798,18	3,744
798,36	3,361
798,54	3,285
798,72	2,870
798,89	3,210
799,07	3,196
799,25	3,655
799,43	3,460
799,61	3,759
799,78	3,624
799,96	3,541
800,14	3,679
800,32	3,831
800,50	3,546
800,67	3,412
800,85	3,298
801,03	2,863
801,21	2,928
801,39	2,858
801,56	2,700
801,74	2,286
801,92	2,512
802,10	2,250
802,27	2,025
802,45	2,628
802,63	2,818
802,81	2,122
802,99	2,162
803,16	2,024
803,34	2,218
803,52	1,890
803,70	1,747
803,87	1,973
804,05	1,857
804,23	1,690
804,41	2,014
804,58	1,740
804,76	1,484
804,94	1,747
805,12	2,006
805,29	1,618
805,47	2,148
805,65	2,215
805,83	2,438
806,00	2,662
806,18	2,591
806,36	2,839
806,54	3,014
806,71	2,760
806,89	2,606
807,07	2,215
807,25	1,989
807,42	2,139
807,60	2,287
807,78	2,130
807,95	1,912
808,13	2,015
808,31	2,313
808,49	2,033
808,66	2,315
808,84	2,478
809,02	2,487
809,20	2,711
809,37	3,117
809,55	3,431
809,73	3,140
809,90	2,953
810,08	2,789
810,26	3,291
810,44	2,968
810,61	3,527
810,79	3,512
810,97	3,712
811,14	3,724
811,32	3,984
811,50	3,963
811,67	4,057
811,85	4,394
812,03	4,489
812,21	4,552
812,38	4,429
812,56	4,568
812,74	4,556
812,91	4,516
813,09	4,723
813,27	4,434
813,44	4,271
813,62	4,976
813,80	4,377
813,97	4,338
814,15	3,904
814,33	3,830
814,50	4,139
814,68	3,719
814,86	4,102
815,04	4,326
815,21	4,297
815,39	4,361
815,57	4,892
815,74	4,805
815,92	4,789
816,10	5,269
816,27	4,986
816,45	4,871
816,63	4,767
816,80	4,621
816,98	4,530
817,15	4,179
817,33	4,074
817,51	3,865
817,68	3,880
817,86	3,746
818,04	3,739
818,21	3,631
818,39	3,537
818,57	3,515
818,74	3,456
818,92	3,243
819,10	3,264
819,27	3,374
819,45	3,327
819,63	3,169
819,80	3,039
819,98	2,915
820,15	2,748
820,33	2,714
820,51	2,580
820,68	2,620
820,86	2,616
821,04	2,461
821,21	2,405
821,39	2,424
821,56	2,375
821,74	2,300
821,92	2,445
822,09	2,521
822,27	2,477
822,45	2,371
822,62	2,249
822,80	2,177
822,97	2,228
823,15	2,276
823,33	2,397
823,50	2,400
823,68	2,424
823,85	2,346
824,03	2,397
824,21	2,404
824,38	2,394
824,56	2,487
824,73	2,583
824,91	2,641
825,09	2,760
825,26	2,624
825,44	2,571
825,61	2,429
825,79	2,359
825,97	2,301
826,14	2,285
826,32	2,203
826,49	2,213
826,67	2,193
826,85	2,166
827,02	2,193
827,20	2,217
827,37	2,167
827,55	2,112
827,72	2,226
827,90	2,162
828,08	2,256
828,25	2,391
828,43	2,351
828,60	2,496
828,78	2,546
828,95	2,497
829,13	2,519
829,31	2,523
829,48	2,457
829,66	2,512
829,83	2,413
830,01	2,378
830,18	2,443
830,36	2,389
830,53	2,442
830,71	2,497
830,89	2,643
831,06	2,583
831,24	2,749
831,41	2,734
831,59	2,577
831,76	2,633
831,94	2,748
832,11	2,520
832,29	2,575
832,46	2,731
832,64	2,399
832,81	2,308
832,99	2,523
833,17	2,590
833,34	2,691
833,52	2,856
833,69	2,762
833,87	2,876
834,04	2,739
834,22	2,534
834,39	2,530
834,57	2,693
834,74	2,478
834,92	2,469
835,09	2,213
835,27	2,339
835,44	1,989
835,62	1,923
835,79	1,670
835,97	1,712
836,14	1,675
836,32	1,623
836,49	1,904
836,67	1,905
836,84	1,761
837,02	1,919
837,19	1,866
837,37	1,687
837,54	1,580
837,72	1,443
837,89	1,445
838,07	1,509
838,24	1,281
838,42	0,907
838,59	1,099
838,77	0,720
838,94	0,240
839,12	0,170
839,29	-0,045
839,47	0,056
839,64	0,255
839,82	0,455
839,99	0,038
840,17	0,285
840,34	0,242
840,52	-0,286
840,69	-0,457
840,86	-0,933
841,04	-0,869
841,21	-1,138
841,39	-1,356
841,56	-1,639
841,74	-1,343
841,91	-2,383
842,09	-2,268
842,26	-1,837
842,44	-1,833
842,61	-1,933
842,79	-1,696
842,96	-1,602
843,13	-1,942
843,31	-1,847
843,48	-1,664
843,66	-2,151
843,83	-2,425
844,01	-2,316
844,18	-2,958
844,36	-3,345
844,53	-3,048
844,70	-3,245
844,88	-2,748
845,05	-2,305
845,23	-2,609
845,40	-2,530
845,58	-2,697
845,75	-1,732
845,92	-1,924
846,10	-1,983
846,27	-1,272
846,45	-1,319
846,62	-1,133
846,80	-0,465
846,97	-0,546
847,14	-1,996
847,32	-1,434
847,49	-1,039
847,67	-1,564
847,84	-1,167
848,02	-0,768
848,19	0,466
848,36	-0,176
848,54	0,450
848,71	0,957
848,89	0,871
849,06	1,931
849,23	3,160
849,41	2,652
849,58	2,737
849,76	3,420
849,93	3,190
850,10	2,937
850,28	2,635
850,45	1,889
850,63	3,561
850,80	3,424
850,97	3,346
851,15	4,487
851,32	4,730
851,49	4,544
851,67	4,459
851,84	3,574
852,02	4,415
852,19	4,217
852,36	4,851
852,54	7,308
852,71	7,114
852,88	7,044
853,06	6,695
853,23	6,670
853,41	6,498
853,58	6,463
853,75	6,366
853,93	6,813
854,10	6,389
854,27	7,235
854,45	6,366
854,62	7,901
854,79	8,170
854,97	8,089
855,14	7,274
855,32	8,166
855,49	7,436
855,66	6,451
855,84	6,734
856,01	6,847
856,18	6,528
856,36	7,010
856,53	7,347
856,70	8,682
856,88	8,539
857,05	8,583
857,22	8,727
857,40	7,140
857,57	7,536
857,74	9,592
857,92	8,751
858,09	9,891
858,26	9,277
858,44	7,726
858,61	7,594
858,78	6,293
858,96	6,419
859,13	4,508
859,30	4,576
859,48	6,004
859,65	4,342
859,82	3,086
860,00	4,080
860,17	5,133
860,34	5,002
860,51	6,485
860,69	5,968
860,86	6,770
861,03	7,621
861,21	7,637
861,38	7,484
861,55	7,878
861,73	7,475
861,90	6,619
862,07	8,125
862,24	7,949
862,42	9,335
862,59	8,185
862,76	7,975
862,94	7,362
863,11	5,507
863,28	4,450
863,46	2,742
863,63	3,077
863,80	4,418
863,97	3,997
864,15	4,573
864,32	3,368
864,49	3,234
864,66	3,893
864,84	3,292
865,01	4,645
865,18	3,774
865,36	3,530
865,53	4,678
865,70	3,210
865,87	2,816
866,05	2,318
866,22	2,738
866,39	2,188
866,56	2,107
866,74	1,988
866,91	0,315
867,08	-0,433
867,25	-1,370
867,43	-3,025
867,60	-2,414
867,77	-3,982
867,94	-1,603
868,12	-2,244
868,29	-2,413
868,46	-1,367
868,63	-2,570
868,81	-1,310
868,98	-1,307
869,15	-0,532
869,32	-2,544
869,50	-0,962
869,67	-0,036
869,84	-0,485
870,01	-1,836
870,19	-0,867
870,36	0,048
870,53	0,562
870,70	0,455
870,88	0,171
871,05	-0,939
871,22	-1,898
871,39	-2,473
871,56	-3,610
871,74	-5,854
871,91	-5,789
872,08	-6,563
872,25	-5,487
872,42	-4,648
872,60	-3,919
872,77	-3,831
872,94	-2,276
873,11	-1,136
873,29	-0,549
873,46	-1,218
873,63	-1,130
873,80	0,094
873,97	1,329
874,15	0,230
874,32	-2,070
874,49	-2,411
874,66	-3,699
874,83	-1,447
875,00	-2,158
875,18	-2,945
875,35	-2,531
875,52	-1,934
875,69	-1,943
875,86	-1,871
876,04	-3,263
876,21	-1,968
876,38	-1,774
876,55	0,469
876,72	0,926
876,89	-0,929
877,07	0,100
877,24	0,950
877,41	0,917
877,58	0,889
877,75	2,124
877,93	3,321
878,10	4,101
878,27	4,983
878,44	4,757
878,61	4,694
878,78	4,052
878,95	3,488
879,13	3,323
879,30	2,840
879,47	3,439
879,64	2,905
879,81	3,226
879,98	3,064
880,16	3,735
880,33	3,561
880,50	4,149
880,67	3,972
880,84	3,599
881,01	3,105
881,18	3,114
881,36	2,875
881,53	3,140
881,70	3,562
881,87	3,028
882,04	3,027
882,21	3,682
882,38	3,741
882,55	3,951
882,73	3,662
882,90	3,662
883,07	3,585
883,24	3,573
883,41	6,228
883,58	7,672
883,75	-0,101
883,92	0,038
884,10	3,018
884,27	2,001
884,44	-3,554
884,61	8,040
884,78	-0,267
884,95	-2,632
885,12	5,161
885,29	15,681
885,46	3,460
885,64	11,633
885,81	-4,154
885,98	-3,748
886,15	-5,496
886,32	4,408
886,49	-2,698
886,66	15,327
886,83	10,438
887,00	-24,346
887,17	2,490
887,35	29,009
887,52	6,228
887,69	-14,853
887,86	-16,227
888,03	13,370
888,20	31,818
888,37	-12,792
>>>>>End Processed Spectral Data<<<<<
